Frequency (Hz) - Data	Amplitude (V) - Data	
650.267	0.00499352	0.000161
700.228	0.00563785	0.000161
750.299	0.0051546	0.000161
850.117	0.00644326	0.000161
900.238	0.00612109	0.000161
950.169	0.00724866	0.000161
1000.19	0.0069265	0.000161
1050.18	0.00773191	0.000161
1100.23	0.00837623	0.000161
1150.16	0.00853731	0.000161
1200.34	0.00966488	0.000161
1300.17	0.00966488	0.000161
1350.27	0.0109535	0.000161
1450.3	0.0120811	0.000161
1500.19	0.0140141	0.000161
1600.22	0.0143362	0.000161
1650.09	0.0149806	0.000161
1700.28	0.0165914	0.000161
1750.16	0.017719	0.000161
1800.26	0.0175579	0.000161
1850.21	0.0190076	0.000161
1900.28	0.0190076	0.000161
1950.21	0.0206184	0.000161
2000.15	0.0201352	0.000161
2050.17	0.0225514	0.000161
2100.11	0.0233568	0.000161
2150.25	0.0240011	0.000161
2200.18	0.0246455	0.000161
2250.24	0.0249676	0.000161
2300.19	0.0270617	0.000161
2350.31	0.0275449	0.000161
2400.22	0.0278671	0.000161
2450.1	0.0298001	0.000161
2500.25	0.0304444	0.000161
2550.16	0.0322163	0.000161
2600.26	0.0338271	0.000161
2650.16	0.0367266	0.000161
2700.29	0.0381763	0.000161
2750.22	0.0393039	0.000161
2800.12	0.0409147	0.000161
2850.27	0.0418812	0.000161
2900.17	0.0447806	0.000161
2950.3	0.0442974	0.000161
3000.18	0.0465525	0.000161
3050.29	0.0478412	0.000161
3100.18	0.0500963	0.000161
3150.27	0.0523514	0.000161
3200.22	0.0526736	0.000161
3250.17	0.0549287	0.000161
3300.22	0.0567006	0.000161
3350.19	0.0583115	0.000161
3400.26	0.0597612	0.000161
3450.21	0.0624996	0.000161
3500.35	0.0631439	0.000161
3550.27	0.065399	0.000161
3600.18	0.0681374	0.000161
3650.24	0.0694261	0.000161
3700.19	0.0715201	0.000161
3750.3	0.0742585	0.000161
3800.17	0.0763526	0.000161
3850.27	0.0787688	0.000161
3900.25	0.0802185	0.000161
3950.09	0.0834402	0.000161
4000.24	0.0853731	0.000161
4050.14	0.0874672	0.000161
4100.3	0.0906888	0.000161
4150.21	0.0926218	0.000161
4200.36	0.0947158	0.000161
4250.18	0.0968099	0.000161
4300.27	0.0982596	0.000161
4350.24	0.100998	0.000161
4400.11	0.102448	0.000161
4450.25	0.105347	0.000161
4500.21	0.106797	0.000161
4550.32	0.110341	0.000161
4600.17	0.11179	0.000161
4650.31	0.114529	0.000161
4700.22	0.117428	0.000161
4750.14	0.120167	0.000161
4800.25	0.123227	0.000161
4850.17	0.125321	0.000161
4900.27	0.127899	0.000161
4950.15	0.130798	0.000161
5000.3	0.134986	0.000161
5050.23	0.137725	0.000161
5100.14	0.140785	0.000161
5150.2	0.14304	0.000161
5200.14	0.146745	0.000161
5250.32	0.150772	0.000161
5300.17	0.153349	0.000161
5350.31	0.156893	0.000161
5400.19	0.160115	0.000161
5450.36	0.164786	0.000161
5500.22	0.167686	0.000161
5550.14	0.172035	0.000161
5600.24	0.176062	0.000161
5650.17	0.180089	0.000161
5700.24	0.184599	0.000161
5750.23	0.187015	0.000161
5800.27	0.191204	0.000161
5850.19	0.194747	0.000161
5900.17	0.19958	0.000161
5950.27	0.205218	0.000161
6000.16	0.2086	0.000161
6050.23	0.212466	0.000161
6100.18	0.216816	0.000161
6150.3	0.222131	0.000161
6200.24	0.226319	0.000161
6250.38	0.231635	0.000161
6300.26	0.236145	0.000161
6350.13	0.241622	0.000161
6400.27	0.246132	0.000161
6450.16	0.251287	0.000161
6500.35	0.257569	0.000161
6550.19	0.261757	0.000161
6600.32	0.267395	0.000161
6650.23	0.272389	0.000161
6700.14	0.279476	0.000161
6750.27	0.284148	0.000161
6800.2	0.289463	0.000161
6850.31	0.295745	0.000161
6900.23	0.301867	0.000161
6950.35	0.307988	0.000161
7000.22	0.315558	0.000161
7050.13	0.32168	0.000161
7100.24	0.328445	0.000161
7150.2	0.331183	0.000161
7200.27	0.342137	0.000161
7250.22	0.348741	0.000161
7300.29	0.354862	0.000161
7350.25	0.362433	0.000161
7400.32	0.370487	0.000161
7450.23	0.377575	0.000161
7500.18	0.386434	0.000161
7550.3	0.392555	0.000161
7600.18	0.401898	0.000161
7650.31	0.409147	0.000161
7700.2	0.417684	0.000161
7750.39	0.425416	0.000161
7800.26	0.435564	0.000161
7850.19	0.444262	0.000161
7900.29	0.453605	0.000161
7950.16	0.461659	0.000161
8000.32	0.472291	0.000161
8050.22	0.481633	0.000161
8100.26	0.491298	0.000161
8150.24	0.50193	0.000161
8200.15	0.512561	0.000161
8250.22	0.52287	0.000161
8300.15	0.533502	0.000161
8350.22	0.545905	0.000161
8400.21	0.556214	0.000161
8450.3	0.568778	0.000161
8500.28	0.581343	0.000161
8550.29	0.593907	0.000161
8600.22	0.60631	0.000161
8650.19	0.618391	0.000161
8700.26	0.6316	0.000161
8750.22	0.645936	0.000161
8800.3	0.658662	0.000161
8850.21	0.672998	0.000161
8900.31	0.687979	0.000161
8950.26	0.704087	0.000161
9000.27	0.718423	0.000161
9050.26	0.736142	0.000161
9100.21	0.745324	0.000161
9150.25	0.769164	0.000161
9200.24	0.785111	0.000161
9250.26	0.803635	0.000161
9300.23	0.821193	0.000161
9350.34	0.840684	0.000161
9400.27	0.858725	0.000161
9450.21	0.879666	0.000161
9500.27	0.900284	0.000161
9550.18	0.921225	0.000161
9600.27	0.943776	0.000161
9650.23	0.9652	0.000161
9700.3	0.98904	0.000161
9750.23	1.01336	0.000161
9800.14	1.0372	0.000161
9850.27	1.06153	0.000161
9900.17	1.08907	0.000161
9950.28	1.11452	0.000161
10000.2	1.14368	0.000161
10050.3	1.17412	0.000161
10100.2	1.20118	0.000161
10150.2	1.23195	0.000161
10200.3	1.26481	0.000161
10250.2	1.29848	0.000161
10300.4	1.33198	0.000161
10350.2	1.36774	0.000161
10400.3	1.40495	0.000161
10450.2	1.44329	0.000161
10500.4	1.48356	0.000161
10550.3	1.5256	0.000161
10600.2	1.56587	0.000161
10650.3	1.61065	0.000161
10700.2	1.66011	0.000161
10750.3	1.70924	0.000161
10800.2	1.75772	0.000161
10850.3	1.80943	0.000161
10900.3	1.86452	0.000161
10950.2	1.91735	0.000161
11000.3	1.97599	0.000161
11050.2	2.03655	0.000161
11100.3	2.09535	0.000161
11150.2	2.16268	0.000161
11200.3	2.22776	0.000161
11250.2	2.29525	0.000161
11300.1	2.36162	0.000161
11350.3	2.43765	0.000161
11400.2	2.50176	0.000161
11450.3	2.58633	0.000161
11500.2	2.6448	0.000161
11550.4	2.71761	0.000161
11600.2	2.81007	0.000161
11650.4	2.88046	0.000161
11700.3	2.95005	0.000161
11750.2	3.03349	0.000161
11800.2	3.11999	0.000161
11850.2	3.20327	0.000161
11900.3	3.28236	0.000161
11950.3	3.31313	0.000161
12000.3	3.42879	0.000161
12050.3	3.44151	0.000161
12100.2	3.58165	0.000161
12150.3	3.64737	0.000161
12200.1	3.70182	0.000161
12250.3	3.74531	0.000161
12300.2	3.78123	0.000161
12350.3	3.80507	0.000161
12400.2	3.83745	0.000161
12450.3	3.8236	0.000161
12500.3	3.81957	0.000161
12550.1	3.87949	0.000161
12600.3	3.78381	0.000161
12650.2	3.85163	0.000161
12700.3	3.71986	0.000161
12750.2	3.68088	0.000161
12800.3	3.64109	0.000161
12850.2	3.60678	0.000161
12900.2	3.57779	0.000161
12950.3	3.54509	0.000161
13000.3	3.55523	0.000161
13050.3	3.49306	0.000161
13100.2	3.46293	0.000161
13150.4	3.44199	0.000161
13200.3	3.41187	0.000161
13250.2	3.37821	0.000161
13300.3	3.34309	0.000161
13350.2	3.24241	0.000161
13400.3	3.26786	0.000161
13450.2	3.2263	0.000161
13500.3	3.18442	0.000161
13550.3	3.14319	0.000161
13600.4	3.03736	0.000161
13650.3	3.05733	0.000161
13700.2	3.0169	0.000161
13750.4	2.97292	0.000161
13800.2	2.93233	0.000161
13850.3	2.89448	0.000161
13900.2	2.85292	0.000161
13950.3	2.81474	0.000161
14000.3	2.77318	0.000161
14050.2	2.73581	0.000161
14100.3	2.69731	0.000161
14150.2	2.66252	0.000161
14200.3	2.62499	0.000161
14250.1	2.58842	0.000161
14300.3	2.55298	0.000161
14350.3	2.51819	0.000161
14400.2	2.49209	0.000161
14450.2	2.46245	0.000161
14500.2	2.42557	0.000161
14550.4	2.40205	0.000161
14600.3	2.37483	0.000161
14650.3	2.33021	0.000161
14700.2	2.3033	0.000161
14750.4	2.27721	0.000161
14800.2	2.25417	0.000161
14850.2	2.2276	0.000161
14900.3	2.20327	0.000161
14950.2	2.18104	0.000161
15000.3	2.14754	0.000161
15050.3	2.13433	0.000161
15100.3	2.11436	0.000161
15150.3	2.09068	0.000161
15200.1	2.07038	0.000161
15250.3	2.05121	0.000161
15300.3	2.03768	0.000161
15350.3	2.01078	0.000161
15400.3	1.99338	0.000161
15450.4	1.97357	0.000161
15500.3	1.96165	0.000161
15550.3	1.9399	0.000161
15600.3	1.91912	0.000161
15650.2	1.90334	0.000161
15700.3	1.88787	0.000161
15750.2	1.86983	0.000161
15800.4	1.85308	0.000161
15850.2	1.83794	0.000161
15900.4	1.82312	0.000161
15950.3	1.80862	0.000161
16000.2	1.79187	0.000161
16050.2	1.78156	0.000161
16100.3	1.76932	0.000161
16150.3	1.75772	0.000161
16200.3	1.74097	0.000161
16250.3	1.72647	0.000161
16300.3	1.71278	0.000161
16350.2	1.70086	0.000161
16400.3	1.6891	0.000161
16450.3	1.67815	0.000161
16500.3	1.66397	0.000161
16550.2	1.65334	0.000161
16600.4	1.64706	0.000161
16650.3	1.55637	0.000161
16700.5	1.62016	0.000161
16750.3	1.60936	0.000161
16800.3	1.59954	0.000161
16850.3	1.59132	0.000161
16900.2	1.58536	0.000161
16950.3	1.57602	0.000161
17000.3	1.56426	0.000161
17050.4	1.55299	0.000161
17100.3	1.54203	0.000161
17150.2	1.53092	0.000161
17200.3	1.52303	0.000161
17250.2	1.51433	0.000161
17300.3	1.50579	0.000161
17350.3	1.4979	0.000161
17400.4	1.48952	0.000161
17450.3	1.48034	0.000161
17500.2	1.47357	0.000161
17550.3	1.46536	0.000161
17600.2	1.45569	0.000161
17650.3	1.44651	0.000161
17700.3	1.44168	0.000161
17750.4	1.43475	0.000161
17800.3	1.42766	0.000161
17850.4	1.42025	0.000161
17900.3	1.41397	0.000161
17950.2	1.40882	0.000161
18000.3	1.39899	0.000161
18050.2	1.39271	0.000161
18100.4	1.38739	0.000161
18150.3	1.38433	0.000161
18200.4	1.37354	0.000161
18250.3	1.37161	0.000161
18300.2	1.36017	0.000161
18350.3	1.35453	0.000161
18400.2	1.35035	0.000161
18450.3	1.34439	0.000161
18500.3	1.33955	0.000161
18550.3	1.33375	0.000161
18600.3	1.32924	0.000161
18650.2	1.3257	0.000161
18700.3	1.31813	0.000161
18750.2	1.31008	0.000161
18800.3	1.30556	0.000161
18850.3	1.29832	0.000161
18900.3	1.29477	0.000161
18950.3	1.29042	0.000161
19000.4	1.28479	0.000161
19050.4	1.27754	0.000161
19100.2	1.27625	0.000161
19150.4	1.2698	0.000161
19200.3	1.26481	0.000161
19250.3	1.26223	0.000161
19300.3	1.25708	0.000161
19350.4	1.25611	0.000161
19400.3	1.24951	0.000161
19450.2	1.24355	0.000161
19500.3	1.23936	0.000161
19550.3	1.23566	0.000161
19600.3	1.23179	0.000161
19650.2	1.2276	0.000161
19700.3	1.22277	0.000161
19750.3	1.21955	0.000161
19800.4	1.21488	0.000161
19850.3	1.21133	0.000161
19900.3	1.20634	0.000161
19950.3	1.20279	0.000161
20000.3	1.14561	0.000161
20050.4	1.19732	0.000161
20100.3	1.19216	0.000161
20150.4	1.18878	0.000161
20200.3	1.18443	0.000161
20250.2	1.18137	0.000161
20300.3	1.17912	0.000161
20350.3	1.17686	0.000161
20400.3	1.17396	0.000161
20450.3	1.17187	0.000161
20500.4	1.16784	0.000161
20550.3	1.16301	0.000161
20600.2	1.15882	0.000161
20650.3	1.15608	0.000161
20700.2	1.15173	0.000161
20750.3	1.14867	0.000161
20800.3	1.14626	0.000161
20850.4	1.14175	0.000161
20950.4	1.1353	0.000161
21000.3	1.13305	0.000161
21050.2	1.12838	0.000161
21100.4	1.12725	0.000161
21200.4	1.12032	0.000161
21250.3	1.11952	0.000161
21300.4	1.11726	0.000161
21350.3	1.1142	0.000161
21400.2	1.11114	0.000161
21450.3	1.10808	0.000161
21500.2	1.10615	0.000161
21550.3	1.10534	0.000161
21600.2	1.10115	0.000161
21650.3	1.09858	0.000161
21700.3	1.09632	0.000161
21750.2	1.09535	0.000161
21800.3	1.09229	0.000161
21850.3	1.09052	0.000161
21900.3	1.08923	0.000161
21950.3	1.08601	0.000161